# SrXplanar configration #
[Control]
summation = False

[Experiment]
fit2dconfig = fit2d.txt
tifdirectory = /home/xyang/workspace/13SrSig2D/diffpy.srxplanar/trunk/doc/examples
savedirectory = /home/xyang/workspace/13SrSig2D/diffpy.srxplanar/trunk/doc/examples
backgroundfile = 
addmask = edgemask
integrationspace = twotheta
wavelength = 0.1078
xbeamcenter = 1299.43
ybeamcenter = 1010.19
distance = 369.579
rotationd = 49.715
tiltd = -1.48
tthstepd = 0.02
qstep = 0.02

[Beamline]
xdimension = 2048
ydimension = 2048
xpixelsize = 0.2
ypixelsize = 0.2

[Others]
uncertaintyenable = False
gsasoutput = None
filenameplus = 

0 1528.51
0.02 1483.51
0.04 1610.36
0.06 1595.92
0.08 1601.14
0.1 1593.33
0.12 1618.09
0.14 1620.02
0.16 1662.8
0.18 1716.98
0.2 1750.17
0.22 1861.59
0.24 2285.81
0.26 2916.53
0.28 4063.88
0.3 5036
0.32 6165.47
0.34 7875.18
0.36 8901.3
0.38 9953.56
0.4 11070.5
0.42 11349.5
0.44 11275.8
0.46 11134.6
0.48 10833
0.5 10681.5
0.52 10727.5
0.54 10695.6
0.56 10749.6
0.58 10760.5
0.6 10763
0.62 10859.5
0.64 10824.6
0.66 10810.1
0.68 10910
0.7 10920.9
0.72 10816.8
0.74 11049.1
0.76 11259
0.78 11973.5
0.8 14441
0.82 21476
0.84 36768.9
0.86 59604.1
0.88 74789.2
0.9 76143.9
0.92 66529.2
0.94 45805.6
0.96 24953.7
0.98 15752.2
1 11354.2
1.02 9901.23
1.04 9394.77
1.06 9089.49
1.08 8918.29
1.1 8671.92
1.12 8555.55
1.14 8416.36
1.16 8313.86
1.18 8199.44
1.2 8065.88
1.22 8019.02
1.24 8020.84
1.26 7822.11
1.28 7725.93
1.3 7688.8
1.32 7492.07
1.34 7429.93
1.36 7358.38
1.38 7318.04
1.4 7206.5
1.42 7084.26
1.44 7040.84
1.46 6977.8
1.48 6893.72
1.5 6870.08
1.52 6833.18
1.54 6820.29
1.56 7010.43
1.58 7444.91
1.6 8746.03
1.62 11573.4
1.64 15483.5
1.66 17743.9
1.68 18598.6
1.7 16462.4
1.72 13007.2
1.74 10119.4
1.76 8430.08
1.78 7838.26
1.8 7610.49
1.82 7482.23
1.84 7257.68
1.86 7130.82
1.88 7164.1
1.9 7311.71
1.92 7515.9
1.94 7860.63
1.96 8360.41
1.98 9538.21
2 12278.9
2.02 20167.8
2.04 40124.1
2.06 66504.2
2.08 89756.5
2.1 97908.2
2.12 88119.3
2.14 63007.3
2.16 36735.7
2.18 19817.3
2.2 12499
2.22 11081.8
2.24 11835.3
2.26 13018.6
2.28 13326.9
2.3 12908
2.32 11257.6
2.34 9945.16
2.36 9912.85
2.38 12638.3
2.4 17812.6
2.42 24619.2
2.44 28700
2.46 28347.3
2.48 24366.8
2.5 17545.4
2.52 12156.5
2.54 9181.69
2.56 8279.7
2.58 7899.52
2.6 7669.05
2.62 7337.46
2.64 7261.7
2.66 7630.24
2.68 8485.13
2.7 9622.92
2.72 11251.1
2.74 11831.8
2.76 11643.9
2.78 11233.9
2.8 11289.9
2.82 14219.1
2.84 22865.5
2.86 35438.4
2.88 48272.8
2.9 53395.7
2.92 48105.1
2.94 35398.9
2.96 23469.3
2.98 15031
3 11729.6
3.02 11731.1
3.04 12924.4
3.06 13027.3
3.08 11016.1
3.1 9795.87
3.12 9987.69
3.14 12243.1
3.16 18326.1
3.18 27754.1
3.2 37539.2
3.22 44592.7
3.24 41914.6
3.26 36349.7
3.28 26225.9
3.3 20470.9
3.32 18387.2
3.34 18127.3
3.36 17080.5
3.38 15361.5
3.4 12875.3
3.42 12081.5
3.44 14470.7
3.46 22276.7
3.48 35737.7
3.5 49663.2
3.52 59250.1
3.54 57980.1
3.56 47179.2
3.58 35267.6
3.6 24036.2
3.62 17493.1
3.64 13642.8
3.66 11089.1
3.68 9169.82
3.7 8047.11
3.72 7460.03
3.74 7731.87
3.76 9487.95
3.78 14016.3
3.8 21211.7
3.82 29504.4
3.84 34969.3
3.86 33518.7
3.88 28267.6
3.9 20081
3.92 13322.3
3.94 8970.07
3.96 6888.94
3.98 5936.55
4 5476.53
4.02 5232.5
4.04 5079
4.06 4979.52
4.08 4910.2
4.1 4883.54
4.12 4915.72
4.14 5068.68
4.16 5334.16
4.18 5768.33
4.2 6368.46
4.22 6905.59
4.24 7376.91
4.26 8001.31
4.28 8740.94
4.3 8394.73
4.32 9043.51
4.34 8738.59
4.36 7873.89
4.38 7216.96
4.4 6785.03
4.42 7011.68
4.44 7813.44
4.46 8834.61
4.48 10285.5
4.5 11870.7
4.52 14069.9
4.54 16188.5
4.56 17325.5
4.58 17063.3
4.6 14978.6
4.62 13068.4
4.64 11178.1
4.66 9693.26
4.68 8791.73
4.7 8522.29
4.72 9345.15
4.74 11600
4.76 14719.8
4.78 18169.5
4.8 19726.5
4.82 19461.8
4.84 16972.7
4.86 13487
4.88 10393.9
4.9 7997.47
4.92 6809.95
4.94 6751.97
4.96 7508.95
4.98 8912.17
5 10276.1
5.02 11109.2
5.04 11056.9
5.06 10181.1
5.08 9307.53
5.1 8880.63
5.12 9372.47
5.14 10535.7
5.16 11774.5
5.18 12560.9
5.2 11993.1
5.22 10888.4
5.24 9529.15
5.26 8567.19
5.28 8301.43
5.3 8465.18
5.32 9512.59
5.34 11757.6
5.36 15111.2
5.38 18826.6
5.4 21031.6
5.42 20781.9
5.44 18368.2
5.46 15761.5
5.48 14430.8
5.5 13573.9
5.52 12957.8
5.54 11554.6
5.56 9904.98
5.58 8111.33
5.6 6866.76
5.62 6248.85
5.64 6172.29
5.66 6773.53
5.68 8248.13
5.7 11253.9
5.72 15791
5.74 20521.4
5.76 24189
5.78 25074.4
5.8 22916.7
5.82 18879.2
5.84 14504.8
5.86 10928.7
5.88 8877.7
5.9 8412.7
5.92 9015.5
5.94 10133.6
5.96 11123.2
5.98 11363.5
6 10790.1
6.02 10015.3
6.04 9428.51
6.06 9428.12
6.08 9523.33
6.1 9513.74
6.12 9049.62
6.14 8142.33
6.16 7186.63
6.18 6627.65
6.2 6489.77
6.22 6844.16
6.24 7334.05
6.26 7727.71
6.28 7791.78
6.3 7596.16
6.32 7479.57
6.34 7722.34
6.36 8371.41
6.38 9191.74
6.4 9785.93
6.42 9917.42
6.44 9698.26
6.46 9143.49
6.48 8418.27
6.5 7667.46
6.52 7076.08
6.54 6796.33
6.56 6826.89
6.58 7293.56
6.6 8038.3
6.62 9039.62
6.64 9921.64
6.66 10416.4
6.68 10237.3
6.7 9626.65
6.72 8971.33
6.74 8708.92
6.76 8845.92
6.78 9092.44
6.8 9234.08
6.82 9028.09
6.84 8621.39
6.86 8140.94
6.88 7577.25
6.9 7112.2
6.92 6613.86
6.94 6220.68
6.96 5949.48
6.98 6028.02
7 6518.99
7.02 7283.79
7.04 8113.63
7.06 8606.04
7.08 8562.16
7.1 8056.35
7.12 7486.47
7.14 7181.77
7.16 7303.16
7.18 7747.65
7.2 8334.73
7.22 8725.03
7.24 8718.15
7.26 8452.15
7.28 8308.3
7.3 8479.52
7.32 8943.57
7.34 9398.98
7.36 9684.29
7.38 9323.91
7.4 8556.23
7.42 7552.83
7.44 6596.3
7.46 5981.92
7.48 5609.3
7.5 5507.73
7.52 5531.89
7.54 5549.66
7.56 5629.79
7.58 5761.44
7.6 5873.34
7.62 5916.67
7.64 5810.65
7.66 5595.16
7.68 5426.71
7.7 5369.77
7.72 5520.35
7.74 5769.58
7.76 6124.77
7.78 6388.63
7.8 6573.94
7.82 6534.2
7.84 6433.79
7.86 6226.5
7.88 5902.8
7.9 5550.08
7.92 5308.45
7.94 5193.92
7.96 5399.15
7.98 6005.8
8 6874.72
8.02 8193.48
8.04 9576.37
8.06 10639.8
8.08 11090.6
8.1 10842.5
8.12 10061.4
8.14 9305.66
8.16 8550.98
8.18 8032.23
8.2 7754.3
8.22 7536.03
8.24 7321.68
8.26 7080.34
8.28 6784.26
8.3 6512.68
8.32 6388.1
8.34 6475.25
8.36 6815.26
8.38 7330.06
8.4 7872.85
8.42 8348.89
8.44 8564.17
8.46 8408.8
8.48 8039.2
8.5 7506.02
8.52 6862.21
8.54 6357.34
8.56 6058.89
8.58 6045.37
8.6 6321.62
8.62 6814.68
8.64 7222.18
8.66 7438.27
8.68 7420.21
8.7 7148.24
8.72 6847.93
8.74 6592.74
8.76 6418.42
8.78 6328.99
8.8 6241.15
8.82 6029.09
8.84 5737.49
8.86 5393.31
8.88 5085.05
8.9 4910.96
8.92 4929.1
8.94 5111.93
8.96 5351.34
8.98 5634.59
9 5755.65
9.02 5764.81
9.04 5622.12
9.06 5443.73
9.08 5277.04
9.1 5094.05
9.12 4977.71
9.14 4934.63
9.16 4914.62
9.18 4930.35
9.2 5007.93
9.22 5159.02
9.24 5306.87
9.26 5416.48
9.28 5421.81
9.3 5294.25
9.32 5109.93
9.34 4868.86
9.36 4713.37
9.38 4673.26
9.4 4725.69
9.42 4889.54
9.44 5130.05
9.46 5395.41
9.48 5655.81
9.5 5943.92
9.52 6217.32
9.54 6403.93
9.56 6471.07
9.58 6387.17
9.6 6211.31
9.62 5988.79
9.64 5630.87
9.66 5375.59
9.68 5163.2
9.7 5103.98
9.72 5170.85
9.74 5340.64
9.76 5486.45
9.78 5578.73
9.8 5628.06
9.82 5592.35
9.84 5509.17
9.86 5431.41
9.88 5299.87
9.9 5185.08
9.92 5116.49
9.94 5083.12
9.96 5065.11
9.98 5075.15
10 5103.34
10.02 5189.64
10.04 5256.74
10.06 5336.12
10.08 5403.47
10.1 5427.49
10.12 5450.51
10.14 5429.02
10.16 5385.48
10.18 5323.06
10.2 5255.34
10.22 5220.95
10.24 5228.35
10.26 5334.23
10.28 5461.54
10.3 5591.34
10.32 5707.76
10.34 5761.2
10.36 5726.19
10.38 5636.53
10.4 5442.58
10.42 5194.9
10.44 4911.46
10.46 4661.17
10.48 4521.42
10.5 4348.83
10.52 4234.9
10.54 4174.17
10.56 4162.05
10.58 4169.83
10.6 4187.72
10.62 4192.9
10.64 4180.78
10.66 4150.04
10.68 4108.52
10.7 4105.9
10.72 4122.36
10.74 4214.92
10.76 4324.18
10.78 4441.22
10.8 4560.97
10.82 4697.82
10.84 4822.22
10.86 4955.08
10.88 5011.93
10.9 5012.64
10.92 5012.33
10.94 5013.1
10.96 5012.96
10.98 5063.61
11 5096.65
11.02 5167.84
11.04 5224.77
11.06 5269.3
11.08 5251.18
11.1 5212.45
11.12 5110.49
11.14 4976.93
11.16 4817.62
11.18 4637.2
11.2 4500.11
11.22 4427.87
11.24 4411
11.26 4441.2
11.28 4482.19
11.3 4525.18
11.32 4558.75
11.34 4604.38
11.36 4635.39
11.38 4640.9
11.4 4641.25
11.42 4680.57
11.44 4771.61
11.46 4913.46
11.48 5066.89
11.5 5171.91
11.52 5242.4
11.54 5243.75
11.56 5213.23
11.58 5161.66
11.6 5052.79
11.62 4935.82
11.64 4821.99
11.66 4731.73
11.68 4686.12
11.7 4658.34
11.72 4655.09
11.74 4658.17
11.76 4671.12
11.78 4690.51
11.8 4689.91
11.82 4672.58
11.84 4615.52
11.86 4539.66
11.88 4445.41
11.9 4344.34
11.92 4240.83
11.94 4123.77
11.96 4002.75
11.98 3892.84
12 3780.8
12.02 3672.05
12.04 3607.94
12.06 3580.72
12.08 3569.3
12.1 3602.85
12.12 3661.41
12.14 3690.11
12.16 3732.54
12.18 3766.86
12.2 3781.64
12.22 3804.37
12.24 3817.32
12.26 3795.21
12.28 3775.75
12.3 3751.24
12.32 3755.41
12.34 3781.11
12.36 3837.39
12.38 3879.03
12.4 3920.43
12.42 3952.48
12.44 3968.93
12.46 3986.25
12.48 4008.45
12.5 4034.92
12.52 4038.42
12.54 4032.03
12.56 4004.8
12.58 3984.64
12.6 3978.34
12.62 3978.97
12.64 3996.29
12.66 4008.07
12.68 4022.88
12.7 4019.49
12.72 4031.52
12.74 4042.65
12.76 4063.66
12.78 4082.99
12.8 4080.48
12.82 4065.02
12.84 4055.15
12.86 4028.37
12.88 4012.94
12.9 4013.15
12.92 4027.92
12.94 4065.21
12.96 4099.32
12.98 4147.45
13 4180.66
13.02 4191.58
13.04 4187.46
13.06 4176.71
13.08 4151.31
13.1 4115.38
13.12 4062.55
13.14 4008.61
13.16 3952.4
13.18 3887.3
13.2 3836.54
13.22 3802.82
13.24 3783.73
13.26 3787.19
13.28 3800.57
13.3 3817.59
13.32 3811.25
13.34 3811.73
13.36 3795.97
13.38 3802.21
13.4 3805.75
13.42 3816.29
13.44 3835
13.46 3855.37
13.48 3878.63
13.5 3900.49
13.52 3928.99
13.54 3940.95
13.56 3953.35
13.58 3955.07
13.6 3947.89
13.62 3913.87
13.64 3893.03
13.66 3871.51
13.68 3844.48
13.7 3837.03
13.72 3828.41
13.74 3827.83
13.76 3817.11
13.78 3806.17
13.8 3775.35
13.82 3768.48
13.84 3770.28
13.86 3783.35
13.88 3801.01
13.9 3800.23
13.92 3793.28
13.94 3770
13.96 3752.37
13.98 3719.92
14 3702.87
14.02 3708.54
14.04 3717.17
14.06 3735.33
14.08 3754.43
14.1 3757.74
14.12 3746.91
14.14 3738.96
14.16 3732.38
14.18 3729.79
14.2 3736.27
14.22 3741.99
14.24 3726.9
14.26 3713.86
14.28 3683.14
14.3 3651.16
14.32 3627.6
14.34 3601.5
14.36 3577.32
14.38 3560.95
14.4 3547.52
14.42 3518.85
14.44 3490.98
14.46 3468.66
14.48 3444.66
14.5 3430.76
14.52 3424.41
14.54 3416.05
14.56 3410.57
14.58 3410.81
14.6 3413.19
14.62 3423.92
14.64 3431.85
14.66 3436.22
14.68 3421.38
14.7 3415.59
14.72 3406.07
14.74 3401.79
14.76 3409.15
14.78 3432.54
14.8 3443.89
14.82 3449.3
14.84 3450.76
14.86 3435.3
14.88 3419.2
14.9 3410.53
14.92 3401.25
14.94 3401.11
14.96 3412.09
14.98 3430.37
15 3443.23
15.02 3449.23
15.04 3440.96
15.06 3416.42
15.08 3393.04
15.1 3386.81
15.12 3378.56
15.14 3400.96
15.16 3422.25
15.18 3426.74
15.2 3428.04
15.22 3415.33
15.24 3382.16
15.26 3360.51
15.28 3341.67
15.3 3345.14
15.32 3350.82
15.34 3359.39
15.36 3353.02
15.38 3327.14
15.4 3295.99
15.42 3275.6
15.44 3258.04
15.46 3257.97
15.48 3263.96
15.5 3269.96
15.52 3276.94
15.54 3279.32
15.56 3277.28
15.58 3274.37
15.6 3281.27
15.62 3288.6
15.64 3295
15.66 3301.07
15.68 3301.06
15.7 3292.54
15.72 3282.36
15.74 3272.17
15.76 3259.46
15.78 3261.63
15.8 3265.49
15.82 3259.58
15.84 3217.31
15.86 3218.55
15.88 3217
15.9 3208.7
15.92 3213.65
15.94 3220.24
15.96 3239.61
15.98 3256.81
16 3283.81
16.02 3291.08
16.04 3292.54
16.06 3291.89
16.08 3288.35
16.1 3291.54
16.12 3304.07
16.14 3313.12
16.16 3325.45
16.18 3330.75
16.2 3335.54
16.22 3324.12
16.24 3318.66
16.26 3307.16
16.28 3288.48
16.3 3275.39
16.32 3263.96
16.34 3243.15
16.36 3230.45
16.38 3215.81
16.4 3210.59
16.42 3207.3
16.44 3211.18
16.46 3214.92
16.48 3215.41
16.5 3204.05
16.52 3193.09
16.54 3171.31
16.56 3166.67
16.58 3159.29
16.6 3155.88
16.62 3161.79
16.64 3178.11
16.66 3182.71
16.68 3180.19
16.7 3173.38
16.72 3165.35
16.74 3146.34
16.76 3138.47
16.78 3141.52
16.8 3140.86
16.82 3148.32
16.84 3162.83
16.86 3165.23
16.88 3160.04
16.9 3157.39
16.92 3157.52
16.94 3149.63
16.96 3141.95
16.98 3139.72
17 3127.14
17.02 3125.06
17.04 3116.87
17.06 3105.49
17.08 3094.22
17.1 3081.81
17.12 3058.66
17.14 3042.74
17.16 3025.9
17.18 3003.86
17.2 2988.6
17.22 2975.47
17.24 2976.47
17.26 2962.3
17.28 2951.79
17.3 2939.24
17.32 2928.17
17.34 2912.81
17.36 2908.16
17.38 2909.25
17.4 2903.12
17.42 2900.13
17.44 2903.45
17.46 2901.79
17.48 2906.4
17.5 2900.72
17.52 2895.51
17.54 2892.54
17.56 2891.71
17.58 2884.65
17.6 2882.63
17.62 2883.51
17.64 2886.9
17.66 2892.76
17.68 2902.85
17.7 2909.23
17.72 2907.44
17.74 2907.96
17.76 2905.78
17.78 2908.25
17.8 2905.28
17.82 2901.79
17.84 2907.15
17.86 2905.33
17.88 2910.7
17.9 2911.96
17.92 2919.75
17.94 2919.06
17.96 2918.15
17.98 2918.78
18 2915.97
18.02 2918.78
18.04 2925.05
18.06 2926.45
18.08 2927
18.1 2923.68
18.12 2921.22
18.14 2911.47
18.16 2910.47
18.18 2905.03
18.2 2898.92
18.22 2893.59
18.24 2891.61
18.26 2894.05
18.28 2882.79
18.3 2877.15
18.32 2877.28
18.34 2873.32
18.36 2874.73
18.38 2877.2
18.4 2885.18
18.42 2887.89
18.44 2884.78
18.46 2885.6
18.48 2879.38
18.5 2876.71
18.52 2875.22
18.54 2872.68
18.56 2870.54
18.58 2875.31
18.6 2878.99
18.62 2884.27
18.64 2887.3
18.66 2889.61
18.68 2884.68
18.7 2875.8
18.72 2863.61
18.74 2854.33
18.76 2840.58
18.78 2829.49
18.8 2829.61
18.82 2823.61
18.84 2818.82
18.86 2817.72
18.88 2818.21
18.9 2813.11
18.92 2809.86
18.94 2808.27
18.96 2803.54
18.98 2793.27
19 2784.64
19.02 2777.79
19.04 2772.83
19.06 2770.59
19.08 2769.55
19.1 2770.82
19.12 2770.37
19.14 2768.83
19.16 2765.04
19.18 2760.39
19.2 2759.55
19.22 2760.8
19.24 2753.87
19.26 2750.72
19.28 2743.15
19.3 2737.79
19.32 2733.68
19.34 2729.28
19.36 2733.9
19.38 2738.23
19.4 2734.1
19.42 2731.86
19.44 2731.83
19.46 2732.69
19.48 2735.52
19.5 2734.8
19.52 2735.9
19.54 2733.83
19.56 2723.48
19.58 2721.84
19.6 2716.16
19.62 2715.07
19.64 2713.96
19.66 2718.26
19.68 2713.01
19.7 2711.72
19.72 2710.57
19.74 2705.59
19.76 2694.86
19.78 2694.4
19.8 2681.33
19.82 2674.62
19.84 2661.09
19.86 2655.25
19.88 2645.73
19.9 2634.34
19.92 2630.14
19.94 2628.09
19.96 2615.51
19.98 2614.15
20 2605.98
20.02 2597.18
20.04 2588.88
20.06 2580.62
20.08 2576.47
20.1 2572
20.12 2564.52
20.14 2559.44
20.16 2559.11
20.18 2556.28
20.2 2563.66
20.22 2562.48
20.24 2563.19
20.26 2561.82
20.28 2565.76
20.3 2566.15
20.32 2566.24
20.34 2566.52
20.36 2565.26
20.38 2567.7
20.4 2566.72
20.42 2564.99
20.44 2565.13
20.46 2559.78
20.48 2561.4
20.5 2563.4
20.52 2566.47
20.54 2569.75
20.56 2573.16
20.58 2570.81
20.6 2571.22
20.62 2568.16
20.64 2567.24
20.66 2562.37
20.68 2560.66
20.7 2557.2
20.72 2556.67
20.74 2555.29
20.76 2555.63
20.78 2553.21
20.8 2552.25
20.82 2552.18
20.84 2547.69
20.86 2548.53
20.88 2543.34
20.9 2542.06
20.92 2538.68
20.94 2539.84
20.96 2540.18
20.98 2540.48
21 2538.93
21.02 2542.11
21.04 2544.26
21.06 2543.85
21.08 2540.79
21.1 2542.99
21.12 2542.35
21.14 2536.61
21.16 2531.33
21.18 2531.26
21.2 2530.48
21.22 2528.63
21.24 2532.56
21.26 2529.97
21.28 2527.8
21.3 2522.43
21.32 2518.96
21.34 2518.49
21.36 2512.17
21.38 2510.18
21.4 2504.54
21.42 2499.98
21.44 2495.45
21.46 2490.94
21.48 2488.04
21.5 2485.69
21.52 2485
21.54 2481.02
21.56 2479.11
21.58 2474.35
21.6 2468.22
21.62 2459.3
21.64 2454.72
21.66 2454.05
21.68 2451.83
21.7 2450.03
21.72 2446.75
21.74 2444.04
21.76 2439.24
21.78 2437.6
21.8 2438.35
21.82 2440.49
21.84 2440.3
21.86 2438.51
21.88 2437.75
21.9 2437.71
21.92 2434.26
21.94 2433.62
21.96 2428.95
21.98 2424.8
22 2420.74
22.02 2418.57
22.04 2417.21
22.06 2414.54
22.08 2410.84
22.1 2407.01
22.12 2405.44
22.14 2403.47
22.16 2398.47
22.18 2400.04
22.2 2399.22
22.22 2397.44
22.24 2399.26
22.26 2395.15
22.28 2393.56
22.3 2387.93
22.32 2384.95
22.34 2379.71
22.36 2374.9
22.38 2375.67
22.4 2373.32
22.42 2372.07
22.44 2374.78
22.46 2373.9
22.48 2372.03
22.5 2368.94
22.52 2366.59
22.54 2363.55
22.56 2361.32
22.58 2359.76
22.6 2355.54
22.62 2356.93
22.64 2353.21
22.66 2345.9
22.68 2346.14
22.7 2343.7
22.72 2341.84
22.74 2336.34
22.76 2335.68
22.78 2337.92
22.8 2335.85
22.82 2331.28
22.84 2331.13
22.86 2327.9
22.88 2327.36
22.9 2322.08
22.92 2318.69
22.94 2316.73
22.96 2311.29
22.98 2308.46
23 2309.18
23.02 2306.48
23.04 2303.95
23.06 2298.93
23.08 2298.07
23.1 2296.89
23.12 2295.94
23.14 2294.27
23.16 2291.03
23.18 2291.27
23.2 2292.52
23.22 2294.76
23.24 2292.5
23.26 2295.53
23.28 2292.46
23.3 2290.33
23.32 2290.5
23.34 2289.99
23.36 2289.48
23.38 2288.55
23.4 2287.77
23.42 2285.28
23.44 2285.11
23.46 2282.15
23.48 2284.24
23.5 2284.41
23.52 2281.83
23.54 2277.41
23.56 2276.8
23.58 2246.07
23.6 2262.18
23.62 2262.57
23.64 2262.87
23.66 2262.42
23.68 2261.25
23.7 2261.89
23.72 2259.53
23.74 2260.82
23.76 2258.32
23.78 2259.04
23.8 2259.23
23.82 2257.82
23.84 2254.34
23.86 2254.97
23.88 2250.97
23.9 2249.03
23.92 2248.7
23.94 2245.66
23.96 2242.62
23.98 2241.52
24 2238.45
24.02 2238.35
24.04 2234.52
24.06 2236.01
24.08 2236.08
24.1 2232.6
24.12 2232.87
24.14 2232.35
24.16 2232.17
24.18 2229.19
24.2 2230.88
24.22 2224.07
24.24 2224.69
24.26 2222
24.28 2221.14
24.3 2219.55
24.32 2214.17
24.34 2210.14
24.36 2209.42
24.38 2209.15
24.4 2206.8
24.42 2205.27
24.44 2200.82
24.46 2197.43
24.48 2195.9
24.5 2191.45
24.52 2191.34
24.54 2188.95
24.56 2184.87
24.58 2186.02
24.6 2184.77
24.62 2180.69
24.64 2179.28
24.66 2178.38
24.68 2172.87
24.7 2173.13
24.72 2166.66
24.74 2166.02
24.76 2165.2
24.78 2163.12
24.8 2160.01
24.82 2162.52
24.84 2155.78
24.86 2156.31
24.88 2155.72
24.9 2152.41
24.92 2150.47
24.94 2142.47
24.96 2142.47
24.98 2141.17
25 2143.71
25.02 2140.58
25.04 2137.4
25.06 2138.55
25.08 2135.17
25.1 2135.62
25.12 2131.24
25.14 2129.66
25.16 2123.66
25.18 2122.07
25.2 2117.24
25.22 2118.94
25.24 2115.74
25.26 2115.99
25.28 2117.46
25.3 2112.11
25.32 2111.73
25.34 2109.62
25.36 2107.26
25.38 2105.49
25.4 2104.14
25.42 2101.28
25.44 2100.27
25.46 2100.87
25.48 2097.76
25.5 2097.89
25.52 2098.21
25.54 2094.16
25.56 2091.59
25.58 2085.49
25.6 2087.15
25.62 2086.79
25.64 2085.31
25.66 2082.49
25.68 2082.13
25.7 2078.96
25.72 2079.41
25.74 2075.83
25.76 2072.45
25.78 2073.97
25.8 2070.74
25.82 2070.21
25.84 2066.63
25.86 2066.04
25.88 2066.34
25.9 2064.97
25.92 2064.7
25.94 2063.56
25.96 2059.96
25.98 2062.23
26 2061.94
26.02 2063.85
26.04 2056.07
26.06 2056.45
26.08 2053.49
26.1 2054.58
26.12 2053.56
26.14 2048.99
26.16 2047.32
26.18 2048.6
26.2 2045.6
26.22 2042.97
26.24 2045.2
26.26 2043.74
26.28 2044.58
26.3 2042.98
26.32 2041.48
26.34 2039.15
26.36 2040.51
26.38 2039.07
26.4 2036.08
26.42 2034.28
26.44 2033.12
26.46 2033.09
26.48 2032.33
26.5 2030.42
26.52 2029.89
26.54 2025.12
26.56 2024.73
26.58 2020.11
26.6 2020.3
26.62 2016.37
26.64 2014.99
26.66 2016.14
26.68 2013.58
26.7 2010.18
26.72 2011
26.74 2006.71
26.76 2008.46
26.78 2009.73
26.8 2008.13
26.82 2004.8
26.84 2003.66
26.86 2002.12
26.88 2000.33
26.9 1999.35
26.92 1994.68
26.94 1995.91
26.96 1993.76
26.98 1993.44
27 1991.44
27.02 1988.9
27.04 1984.67
27.06 1982.75
27.08 1981.36
27.1 1978.37
27.12 1978.05
27.14 1973.08
27.16 1973.16
27.18 1971.29
27.2 1971.7
27.22 1967.95
27.24 1965.7
27.26 1963.51
27.28 1960.9
27.3 1962.99
27.32 1961.4
27.34 1960.71
27.36 1960.21
27.38 1957.25
27.4 1955.07
27.42 1953.74
27.44 1951.97
27.46 1950.84
27.48 1949.07
27.5 1946.46
27.52 1942.91
27.54 1940.78
27.56 1940.53
27.58 1939.1
27.6 1938.37
27.62 1935.24
27.64 1934.23
27.66 1932.62
27.68 1930.31
27.7 1929.66
27.72 1928.13
27.74 1924.59
27.76 1924.37
27.78 1922.09
27.8 1920.12
27.82 1920.44
27.84 1917.63
27.86 1919.06
27.88 1916.75
27.9 1913.31
27.92 1914.23
27.94 1913.58
27.96 1911.38
27.98 1911.1
28 1910.53
28.02 1910.7
28.04 1910.47
28.06 1904.87
28.08 1905.38
28.1 1899.45
28.12 1898.16
28.14 1889.53
28.16 1884.03
28.18 1887.38
28.2 1887.06
28.22 1887.73
28.24 1889.25
28.26 1885.52
28.28 1883.29
28.3 1882.98
28.32 1879.67
28.34 1880.12
28.36 1878.24
28.38 1876.9
28.4 1875.1
28.42 1876.03
28.44 1875.91
28.46 1874.78
28.48 1871.5
28.5 1873.41
28.52 1872.17
28.54 1867.88
28.56 1865.46
28.58 1866.73
28.6 1865.76
28.62 1866.16
28.64 1863.3
28.66 1860.93
28.68 1858.62
28.7 1858.5
28.72 1859.09
28.74 1856.63
28.76 1855.08
28.78 1855.63
28.8 1854.74
28.82 1855.59
28.84 1851.09
28.86 1847.85
28.88 1848.66
28.9 1847.56
28.92 1847.58
28.94 1846.05
28.96 1840.6
28.98 1841.98
29 1843.95
29.02 1838.89
29.04 1839.23
29.06 1836.12
29.08 1833.58
29.1 1833.08
29.12 1834.74
