# SrXplanar configration #
[Control]
summation = False

[Experiment]
fit2dconfig = fit2d.txt
tifdirectory = /home/xyang/workspace/13SrSig2D/diffpy.srxplanar/trunk/doc/examples
savedirectory = /home/xyang/workspace/13SrSig2D/diffpy.srxplanar/trunk/doc/examples
backgroundfile = 
addmask = edgemask
integrationspace = twotheta
wavelength = 0.1078
xbeamcenter = 1299.43
ybeamcenter = 1010.19
distance = 369.579
rotationd = 49.715
tiltd = -1.48
tthstepd = 0.02
qstep = 0.02

[Beamline]
xdimension = 2048
ydimension = 2048
xpixelsize = 0.2
ypixelsize = 0.2

[Others]
uncertaintyenable = False
gsasoutput = None
filenameplus = 

0 1528.51
0.02 1483.51
0.04 1610.36
0.06 1595.92
0.08 1601.14
0.1 1593.33
0.12 1618.09
0.14 1620.02
0.16 1662.8
0.18 1716.98
0.2 1750.17
0.22 1861.59
0.24 2223.12
0.26 2622.68
0.28 4399.71
0.3 6304.53
0.32 7295.22
0.34 8730.37
0.36 9321.05
0.38 9953.56
0.4 11070.5
0.42 11349.5
0.44 11275.8
0.46 11134.6
0.48 10833
0.5 10681.5
0.52 10727.5
0.54 10695.6
0.56 10749.6
0.58 10760.5
0.6 10763
0.62 10859.5
0.64 10824.6
0.66 10810.1
0.68 10910
0.7 10920.9
0.72 10928.3
0.74 11164.1
0.76 11377.6
0.78 12085.3
0.8 14584
0.82 19811.7
0.84 35510.6
0.86 59243.7
0.88 74789.2
0.9 76768
0.92 67097.8
0.94 43502.4
0.96 23222.5
0.98 15239.7
1 11354.2
1.02 9978.58
1.04 9464.34
1.06 9154.88
1.08 8918.29
1.1 8734.31
1.12 8613.31
1.14 8472.08
1.16 8313.86
1.18 8249.74
1.2 8121.5
1.22 8067.89
1.24 8020.84
1.26 7870.1
1.28 7820.64
1.3 7733.76
1.32 7627.47
1.34 7560.28
1.36 7480.28
1.38 7360.75
1.4 7283.95
1.42 7201.68
1.44 7077.9
1.46 7050.03
1.48 6965.9
1.5 6904.6
1.52 6903.56
1.54 6888.15
1.56 7046.19
1.58 7517.15
1.6 8832.19
1.62 11681.6
1.64 15555.9
1.66 17913.6
1.68 18758.9
1.7 16538.2
1.72 13121.8
1.74 10209.7
1.76 8466.26
1.78 7908.49
1.8 7674.93
1.82 7482.23
1.84 7317.61
1.86 7219.2
1.88 7194.7
1.9 7368.77
1.92 7576.24
1.94 7860.63
1.96 8423.51
1.98 9612.15
2 12326.8
2.02 19769
2.04 44016.8
2.06 67221.4
2.08 90390.8
2.1 98649.9
2.12 88439.7
2.14 64740.5
2.16 39126.2
2.18 19502.7
2.2 12586.7
2.22 11158.7
2.24 11835.3
2.26 13048
2.28 13420.4
2.3 12871.8
2.32 11294.1
2.34 9959.72
2.36 9944.32
2.38 12719.5
2.4 17868.7
2.42 24698.4
2.44 28875.5
2.46 28523.9
2.48 24366.8
2.5 17760.1
2.52 12230.4
2.54 9155.22
2.56 7988.44
2.58 7739.87
2.6 7472.08
2.62 7235.77
2.64 7253.55
2.66 7457.88
2.68 8079.15
2.7 9217.99
2.72 10496.6
2.74 11244.7
2.76 11421.8
2.78 11184.2
2.8 11316.1
2.82 14296.6
2.84 23095.4
2.86 36081.1
2.88 48526.2
2.9 53542
2.92 48228.4
2.94 35823.5
2.96 23653
2.98 14852.1
3 11051.4
3.02 10415.4
3.04 10511
3.06 10275.1
3.08 9813.04
3.1 9468.9
3.12 9821.44
3.14 12245.1
3.16 18236.8
3.18 28407.1
3.2 37850.8
3.22 44006.1
3.24 41886.9
3.26 36267.4
3.28 26284.5
3.3 20519.2
3.32 18429.6
3.34 18121.8
3.36 17119.7
3.38 15396.3
3.4 12932.7
3.42 12109
3.44 14378
3.46 21854.7
3.48 35719.2
3.5 49880.6
3.52 59376.1
3.54 57956
3.56 47283.6
3.58 35129.4
3.6 23734.4
3.62 17566.6
3.64 13671.4
3.66 11112.2
3.68 9207.95
3.7 8064.08
3.72 7475.51
3.74 7763.05
3.76 9487.95
3.78 14074.1
3.8 22683.4
3.82 29791.1
3.84 35109.1
3.86 33651.7
3.88 28978.8
3.9 21193.5
3.92 13349.8
3.94 8941.73
3.96 6902.4
3.98 5959.12
4 5486.79
4.02 5242.42
4.04 5098.01
4.06 4988.88
4.08 4919.22
4.1 4901.66
4.12 4924.96
4.14 5078.14
4.16 5341.63
4.18 5779.09
4.2 6364.06
4.22 6930.25
4.24 7360.49
4.26 7700.46
4.28 8034.94
4.3 8358.45
4.32 8815.13
4.34 8700.93
4.36 8188.02
4.38 7371.84
4.4 6857.18
4.42 7051.12
4.44 7867.78
4.46 8879.76
4.48 10332
4.5 11951.7
4.52 14141.2
4.54 16296.2
4.56 17382.9
4.58 17065.3
4.6 15014.5
4.62 13132.8
4.64 11234.2
4.66 9740.78
4.68 8835.3
4.7 8562.85
4.72 9353.89
4.74 11592.9
4.76 14768.6
4.78 18255.4
4.8 19820.6
4.82 19553.4
4.84 17054.4
4.86 13493.2
4.88 10407.1
4.9 8021.99
4.92 6841.35
4.94 6762.63
4.96 7532.17
4.98 8939.8
5 10306.8
5.02 11176.5
5.04 11107
5.06 10211.4
5.08 9349.82
5.1 8920.56
5.12 9400.2
5.14 10555.8
5.16 11760.1
5.18 12503.1
5.2 12028.6
5.22 10866.2
5.24 9457.82
5.26 8496.23
5.28 8116.35
5.3 8323.9
5.32 9356.04
5.34 11758
5.36 15153.8
5.38 18880.1
5.4 21032.7
5.42 20840.7
5.44 18755.6
5.46 16145.1
5.48 14572.8
5.5 13704.1
5.52 13061.7
5.54 11636
5.56 9956.1
5.58 8164.96
5.6 6913.64
5.62 6273.15
5.64 6221.72
5.66 6800.97
5.68 8314.71
5.7 11314.6
5.72 16119.5
5.74 20805.1
5.76 24348.5
5.78 25172.9
5.8 23067.2
5.82 18991
5.84 14560.5
5.86 10999.9
5.88 8923.7
5.9 8442.43
5.92 9020.68
5.94 10185.7
5.96 11165.5
5.98 11433.6
6 10845.2
6.02 10053.1
6.04 9486.9
6.06 9323.4
6.08 9495.18
6.1 9546.96
6.12 9072.09
6.14 8161.3
6.16 7222.34
6.18 6652.03
6.2 6508.95
6.22 6877.41
6.24 7360.49
6.26 7743.39
6.28 7818.84
6.3 7623.4
6.32 7506.26
6.34 7759.66
6.36 8391.02
6.38 9246.58
6.4 9832.4
6.42 9940.78
6.44 9743.56
6.46 9182.45
6.48 8437.87
6.5 7693.84
6.52 7109.08
6.54 6811.94
6.56 6858.23
6.58 7310.27
6.6 8066.18
6.62 9070.56
6.64 9932.17
6.66 10439.9
6.68 10284.1
6.7 9658.95
6.72 8988.82
6.74 8714.48
6.76 8814.29
6.78 9094.27
6.8 9264.79
6.82 9058.17
6.84 8639.68
6.86 8164.09
6.88 7601.89
6.9 7135.67
6.92 6642.61
6.94 6234.22
6.96 5975.08
6.98 6054.26
7 6530.08
7.02 7307.31
7.04 8138.16
7.06 8614.93
7.08 8589.19
7.1 8081.76
7.12 7518.1
7.14 7204.49
7.16 7299.72
7.18 7771.99
7.2 8360.63
7.22 8716.61
7.24 8744.52
7.26 8478.26
7.28 8325.68
7.3 8505.22
7.32 8958.54
7.34 9428.1
7.36 9723.52
7.38 9351.97
7.4 8573.76
7.42 7575.63
7.44 6622.52
7.46 5967.71
7.48 5620.36
7.5 5522.63
7.52 5536.95
7.54 5560.17
7.56 5651.99
7.58 5778.45
7.6 5890.78
7.62 5933.9
7.64 5827.58
7.66 5611.71
7.68 5442.66
7.7 5395.63
7.72 5515.79
7.74 5792.19
7.76 6147.98
7.78 6401.17
7.8 6586.59
7.82 6538.45
7.84 6446.03
7.86 6238.43
7.88 5919.27
7.9 5560.63
7.92 5308.24
7.94 5154.81
7.96 5280.16
7.98 5816.28
8 6813.04
8.02 8169.47
8.04 9573.82
8.06 10656.7
8.08 11100
8.1 10852.5
8.12 10063
8.14 9305.96
8.16 8566.61
8.18 8054.17
8.2 7761.29
8.22 7549.7
8.24 7341.52
8.26 7086.71
8.28 6796.47
8.3 6530.22
8.32 6393.92
8.34 6492.41
8.36 6833.56
8.38 7330.06
8.4 7893.56
8.42 8370.98
8.44 8571.74
8.46 8423.44
8.48 8060.39
8.5 7502.27
8.52 6880.17
8.54 6368.44
8.56 6058.43
8.58 6061.17
8.6 6338.11
8.62 6811.76
8.64 7234.56
8.66 7457.74
8.68 7426.53
8.7 7166.44
8.72 6859.54
8.74 6598.35
8.76 6434.69
8.78 6345.08
8.8 6241.15
8.82 6044.44
8.84 5751.96
8.86 5397.8
8.88 5097.78
8.9 4919.2
8.92 4933.16
8.94 5124.72
8.96 5360.34
8.98 5624.02
9 5769.89
9.02 5769.54
9.04 5635.84
9.06 5452.62
9.08 5281.36
9.1 5100.9
9.12 4983.83
9.14 4930.05
9.16 4901.16
9.18 4928.33
9.2 5011.97
9.22 5167.22
9.24 5319.66
9.26 5420.84
9.28 5428.23
9.3 5302.59
9.32 5109.71
9.34 4874.28
9.36 4720.76
9.38 4673.26
9.4 4736.75
9.42 4901.02
9.44 5134.11
9.46 5403.81
9.48 5669.04
9.5 5948.56
9.52 6236.81
9.54 6413.69
9.56 6470.03
9.58 6401.98
9.6 6225.57
9.62 5983.44
9.64 5639.17
9.66 5387.89
9.68 5167.13
9.7 5107.87
9.72 5182.6
9.74 5339.46
9.76 5498.89
9.78 5587.03
9.8 5632.3
9.82 5605.06
9.84 5521.44
9.86 5431.41
9.88 5306.23
9.9 5196.75
9.92 5120.33
9.94 5090.6
9.96 5076.34
9.98 5078.86
10 5114.59
10.02 5185.43
10.04 5264.33
10.06 5343.16
10.08 5411.35
10.1 5431.41
10.12 5462.33
10.14 5432.81
10.16 5393.21
10.18 5330.74
10.2 5262.92
10.22 5228.38
10.24 5239.63
10.26 5338.1
10.28 5469.22
10.3 5603.44
10.32 5711.86
10.34 5769.29
10.36 5738.28
10.38 5644.51
10.4 5446.37
10.42 5205.79
10.44 4918.42
10.46 4651.24
10.48 4459.37
10.5 4323.85
10.52 4221.97
10.54 4182.79
10.56 4161.41
10.58 4175.6
10.6 4188.41
10.62 4194.38
10.64 4183.65
10.66 4158.55
10.68 4114.16
10.7 4108.69
10.72 4130.76
10.74 4220.65
10.76 4330.07
10.78 4447.18
10.8 4567.13
10.82 4704.15
10.84 4831.85
10.86 4946.81
10.88 5011.48
10.9 5017.69
10.92 5015.71
10.94 5016.41
10.96 5017.77
10.98 5070.47
11 5098.07
11.02 5174.71
11.04 5231.66
11.06 5265.42
11.08 5258.07
11.1 5219.25
11.12 5117.16
11.14 4986.65
11.16 4820.77
11.18 4643.27
11.2 4508.79
11.22 4433.7
11.24 4413.8
11.26 4449.89
11.28 4487.95
11.3 4531.07
11.32 4564.55
11.34 4610.3
11.36 4641.3
11.38 4649.73
11.4 4650.12
11.42 4686.58
11.44 4780.48
11.46 4916.63
11.48 5073.27
11.5 5181.61
11.52 5248.95
11.54 5247.12
11.56 5222.78
11.58 5168.22
11.6 5055.96
11.62 4939.4
11.64 4828.01
11.66 4740.73
11.68 4688.96
11.7 4664.19
11.72 4663.68
11.74 4663.89
11.76 4673.98
11.78 4699.23
11.8 4695.6
11.82 4671.88
11.84 4621.19
11.86 4545.14
11.88 4450.86
11.9 4349.61
11.92 4245.91
11.94 4128.75
11.96 4010.04
11.98 3895.17
12 3782.17
12.02 3678.72
12.04 3612.22
12.06 3582.87
12.08 3575.74
12.1 3607.11
12.12 3663.57
12.14 3696.75
12.16 3736.97
12.18 3768.83
12.2 3786.14
12.22 3808.84
12.24 3821.81
12.26 3801.98
12.28 3777.96
12.3 3755.58
12.32 3762.08
12.34 3783.28
12.36 3841.88
12.38 3885.76
12.4 3924.96
12.42 3954.78
12.44 3975.8
12.46 3990.76
12.48 4015.42
12.5 4039.57
12.52 4043.05
12.54 4036.66
12.56 4009.34
12.58 3989.22
12.6 3985.17
12.62 3979.46
12.64 3998.56
12.66 4014.91
12.68 4027.4
12.7 4026.26
12.72 4033.81
12.74 4047.16
12.76 4070.5
12.78 4085.29
12.8 4085.01
12.82 4066.35
12.84 4047.12
12.86 4026.77
12.88 4019.63
12.9 4017.57
12.92 4032.41
12.94 4069.64
12.96 4103.88
12.98 4152.01
13 4182.92
13.02 4196.18
13.04 4192.12
13.06 4183.48
13.08 4153.58
13.1 4119.86
13.12 4069.29
13.14 4012.85
13.16 3954.59
13.18 3890.18
13.2 3840.66
13.22 3804.88
13.24 3789.92
13.26 3791.16
13.28 3802.59
13.3 3816.88
13.32 3815.24
13.34 3811.77
13.36 3802.07
13.38 3806.21
13.4 3807.77
13.42 3822.42
13.44 3838.97
13.46 3861.52
13.48 3882.75
13.5 3906.64
13.52 3931.05
13.54 3945.12
13.56 3959.48
13.58 3959.22
13.6 3949.94
13.62 3920.08
13.64 3897.02
13.66 3873.53
13.68 3850.45
13.7 3837.96
13.72 3832.42
13.74 3831.77
13.76 3821.03
13.78 3810.04
13.8 3781.27
13.82 3770.39
13.84 3774.14
13.86 3789.16
13.88 3804.89
13.9 3802.15
13.92 3799.1
13.94 3775.78
13.96 3752.37
13.98 3725.55
14 3708.46
14.02 3710.4
14.04 3720.91
14.06 3740.97
14.08 3758.17
14.1 3759.63
14.12 3752.48
14.14 3742.68
14.16 3736.09
14.18 3733.52
14.2 3739.96
14.22 3745.69
14.24 3732.42
14.26 3715.7
14.28 3686.76
14.3 3656.53
14.32 3631.15
14.34 3605.08
14.36 3582.49
14.38 3566.22
14.4 3547.52
14.42 3524.03
14.44 3496.05
14.46 3470.37
14.48 3447.97
14.5 3435.7
14.52 3427.77
14.54 3417.69
14.56 3415.48
14.58 3414.11
14.6 3416.48
14.62 3427.16
14.64 3428.49
14.66 3439.52
14.68 3426.26
14.7 3418.81
14.72 3407.73
14.74 3406.54
14.76 3412.37
14.78 3434.17
14.8 3448.77
14.82 3454.13
14.84 3450.76
14.86 3440.13
14.88 3423.95
14.9 3412.14
14.92 3404.44
14.94 3405.86
14.96 3415.26
14.98 3433.63
15 3446.37
15.02 3452.44
15.04 3444.17
15.06 3419.57
15.08 3397.68
15.1 3388.38
15.12 3383.27
15.14 3404.01
15.16 3420.45
15.18 3431.52
15.2 3432.67
15.22 3415.33
15.24 3386.84
15.26 3365.06
15.28 3343.18
15.3 3348.23
15.32 3355.38
15.34 3362.41
15.36 3354.53
15.38 3331.68
15.4 3300.4
15.42 3277.07
15.44 3260.99
15.46 3262.32
15.48 3266.67
15.5 3272.89
15.52 3281.31
15.54 3280.8
15.56 3281.64
15.58 3277.3
15.6 3284.17
15.62 3291.51
15.64 3299.38
15.66 3303.97
15.68 3302.52
15.7 3296.88
15.72 3286.69
15.74 3272.17
15.76 3263.71
15.78 3265.95
15.8 3265.49
15.82 3263.85
15.84 3258.2
15.86 3250.02
15.88 3233.61
15.9 3225.33
15.92 3226.44
15.94 3231.34
15.96 3248.34
15.98 3266.67
16 3292.43
16.02 3302.22
16.04 3300.99
16.06 3299.06
16.08 3298.11
16.1 3301.29
16.12 3311.29
16.14 3322.91
16.16 3333.87
16.18 3339.25
16.2 3341.28
16.22 3332.46
16.24 3327.01
16.26 3311.49
16.28 3296.58
16.3 3283.69
16.32 3269.49
16.34 3250
16.36 3238.39
16.38 3219.85
16.4 3218.8
16.42 3215.2
16.44 3217.8
16.46 3220.35
16.48 3220.7
16.5 3211.94
16.52 3197.11
16.54 3179.18
16.56 3171.83
16.58 3163.23
16.6 3163.58
16.62 3168.22
16.64 3180.7
16.66 3190.66
16.68 3187.89
16.7 3179.86
16.72 3167.94
16.74 3152.81
16.76 3144.75
16.78 3144.07
16.8 3148.53
16.82 3154.65
16.84 3164.87
16.86 3170.33
16.88 3166.43
16.9 3163.72
16.92 3161.33
16.94 3154.66
16.96 3148.25
16.98 3142.25
17 3133.32
17.02 3130.08
17.04 3120.58
17.06 3111.68
17.08 3100.3
17.1 3086.77
17.12 3063.41
17.14 3047.53
17.16 3030.73
17.18 3007.4
17.2 2994.5
17.22 2981.24
17.24 2977.66
17.26 2968.06
17.28 2957.5
17.3 2943.9
17.32 2930.45
17.34 2918.46
17.36 2913.8
17.38 2910.26
17.4 2907.57
17.42 2905.68
17.44 2905.75
17.46 2907.34
17.48 2910.83
17.5 2905.24
17.52 2898.87
17.54 2898
17.56 2895.03
17.58 2888.03
17.6 2888.08
17.62 2887.81
17.64 2889.14
17.66 2897.18
17.68 2908.31
17.7 2912.53
17.72 2910.83
17.74 2913.44
17.76 2910.08
17.78 2910.47
17.8 2909.66
17.82 2907.18
17.84 2910.43
17.86 2908.6
17.88 2915.07
17.9 2917.33
17.92 2921.98
17.94 2923.39
17.96 2923.52
17.98 2922.08
18 2920.27
18.02 2923.87
18.04 2929.32
18.06 2930.8
18.08 2931.33
18.1 2927.97
18.12 2923.39
18.14 2916.74
18.16 2914.82
18.18 2905.75
18.2 2903.17
18.22 2898.86
18.24 2896.92
18.26 2896.19
18.28 2887.92
18.3 2881.4
18.32 2879.37
18.34 2877.48
18.36 2878.91
18.38 2881.35
18.4 2888.34
18.42 2890.96
18.44 2890.05
18.46 2887.7
18.48 2884.44
18.5 2880.84
18.52 2878.36
18.54 2876.76
18.56 2874.59
18.58 2878.4
18.6 2882.11
18.62 2888.29
18.64 2890.37
18.66 2893.81
18.68 2887.7
18.7 2879.85
18.72 2867.64
18.74 2856.38
18.76 2844.52
18.78 2834.41
18.8 2831.63
18.82 2826.59
18.84 2823.68
18.86 2821.69
18.88 2819.2
18.9 2817.98
18.92 2813.78
18.94 2811.19
18.96 2805.52
18.98 2798.03
19 2788.49
19.02 2779.74
19.04 2776.62
19.06 2774.4
19.08 2772.41
19.1 2773.69
19.12 2774.2
19.14 2771.64
19.16 2767.93
19.18 2765.09
19.2 2763.31
19.22 2762.69
19.24 2756.67
19.26 2755.45
19.28 2745.94
19.3 2739.64
19.32 2737.38
19.34 2733.93
19.36 2736.69
19.38 2740.05
19.4 2738.75
19.42 2735.55
19.44 2734.59
19.46 2735.43
19.48 2739.18
19.5 2737.57
19.52 2740.46
19.54 2736.52
19.56 2727.19
19.58 2723.65
19.6 2720.58
19.62 2717.79
19.64 2716.68
19.66 2720.95
19.68 2716.59
19.7 2715.29
19.72 2712.39
19.74 2709.13
19.76 2699.23
19.78 2697.08
19.8 2684.91
19.82 2678.06
19.84 2664.56
19.86 2657.04
19.88 2648.28
19.9 2638.61
19.92 2632.69
19.94 2629.81
19.96 2618.88
19.98 2617.52
20 2609.39
20.02 2599.69
20.04 2593.07
20.06 2583.11
20.08 2578.97
20.1 2575.34
20.12 2567.77
20.14 2561.89
20.16 2561.61
20.18 2559.96
20.2 2566.1
20.22 2564.97
20.24 2566.45
20.26 2565.06
20.28 2567.38
20.3 2568.6
20.32 2569.5
20.34 2569.76
20.36 2567.7
20.38 2570.12
20.4 2569.97
20.42 2568.23
20.44 2565.94
20.46 2563.78
20.48 2565.42
20.5 2566.61
20.52 2568.89
20.54 2572.14
20.56 2576.36
20.58 2573.26
20.6 2574.4
20.62 2571.31
20.64 2569.65
20.66 2564.76
20.68 2563.81
20.7 2559.57
20.72 2559.05
20.74 2557.66
20.76 2558.73
20.78 2556.34
20.8 2554.62
20.82 2554.52
20.84 2550.8
20.86 2550.87
20.88 2544.92
20.9 2545.15
20.92 2541.73
20.94 2542.96
20.96 2541.74
20.98 2543.53
21 2542
21.02 2544.43
21.04 2545.79
21.06 2546.91
21.08 2543.82
21.1 2545.3
21.12 2544.64
21.14 2539.65
21.16 2533.6
21.18 2533.55
21.2 2533.51
21.22 2530.88
21.24 2534.82
21.26 2532.22
21.28 2530.8
21.3 2525.43
21.32 2521.21
21.34 2520.72
21.36 2515.92
21.38 2512.41
21.4 2506.75
21.42 2502.18
21.44 2498.37
21.46 2493.15
21.48 2489.51
21.5 2488.59
21.52 2488.64
21.54 2483.21
21.56 2480.54
21.58 2477.22
21.6 2471.12
21.62 2461.45
21.64 2456.85
21.66 2456.2
21.68 2454
21.7 2452.97
21.72 2448.93
21.74 2446.9
21.76 2441.43
21.78 2440.51
21.8 2440.54
21.82 2443.41
21.84 2442.49
21.86 2440.73
21.88 2440.7
21.9 2440.6
21.92 2435.74
21.94 2435.84
21.96 2431.86
21.98 2427.71
22 2423.69
22.02 2420.01
22.04 2418.35
22.06 2417.44
22.08 2413.04
22.1 2408.47
22.12 2408.35
22.14 2405.66
22.16 2401.37
22.18 2402.24
22.2 2401.4
22.22 2399.62
22.24 2402.17
22.26 2397.31
22.28 2395.73
22.3 2390.84
22.32 2387.12
22.34 2382.61
22.36 2377.77
22.38 2377.13
22.4 2375.47
22.42 2374.93
22.44 2377.64
22.46 2375.35
22.48 2374.19
22.5 2371.78
22.52 2369.45
22.54 2365.74
22.56 2362.76
22.58 2362.59
22.6 2359.12
22.62 2359.08
22.64 2354.65
22.66 2350.13
22.68 2349.68
22.7 2345.83
22.72 2344.7
22.74 2338.47
22.76 2338.48
22.78 2340.04
22.8 2338
22.82 2334.08
22.84 2333.24
22.86 2330.02
22.88 2329.46
22.9 2324.89
22.92 2320.8
22.94 2318.83
22.96 2313.38
22.98 2311.23
23 2311.99
23.02 2308.58
23.04 2306.03
23.06 2302.37
23.08 2300.85
23.1 2299.65
23.12 2298.02
23.14 2297.01
23.16 2293.79
23.18 2293.35
23.2 2294.59
23.22 2296.81
23.24 2295.26
23.26 2297.62
23.28 2294.51
23.3 2292.38
23.32 2293.24
23.34 2292.51
23.36 2291.54
23.38 2291.28
23.4 2289.8
23.42 2287.33
23.44 2287.18
23.46 2284.86
23.48 2286.11
23.5 2285.77
23.52 2283.89
23.54 2280.14
23.56 2279.51
23.58 2277.33
23.6 2276.37
23.62 2274.21
23.64 2272.27
23.66 2270.53
23.68 2269.28
23.7 2267.9
23.72 2267.02
23.74 2267.53
23.76 2265.05
23.78 2265.09
23.8 2264.58
23.82 2263.9
23.84 2260.3
23.86 2260.31
23.88 2256.95
23.9 2253.04
23.92 2254.03
23.94 2250.99
23.96 2248.42
23.98 2246.13
24 2243.13
24.02 2242.27
24.04 2239.78
24.06 2241.29
24.08 2240.05
24.1 2236.5
24.12 2237.45
24.14 2237.58
24.16 2236.11
24.18 2233.79
24.2 2234.83
24.22 2228.61
24.24 2228.63
24.26 2226.54
24.28 2225.1
24.3 2223.38
24.32 2218.04
24.34 2214.65
24.36 2213.29
24.38 2213.7
24.4 2210.01
24.42 2209.81
24.44 2204.01
24.46 2201.91
24.48 2200.42
24.5 2194.6
24.52 2195.16
24.54 2192.75
24.56 2189.31
24.58 2189.23
24.6 2188.54
24.62 2183.87
24.64 2183.68
24.66 2181.56
24.68 2177.26
24.7 2175.61
24.72 2171.05
24.74 2169.77
24.76 2168.98
24.78 2166.85
24.8 2163.74
24.82 2165.63
24.84 2159.51
24.86 2160.68
24.88 2158.82
24.9 2156.09
24.92 2152.91
24.94 2146.78
24.96 2145.58
24.98 2144.84
25 2147.41
25.02 2143.65
25.04 2141.63
25.06 2141.62
25.08 2138.81
25.1 2138.66
25.12 2134.85
25.14 2132.72
25.16 2127.32
25.18 2125.09
25.2 2120.81
25.22 2121.94
25.24 2118.77
25.26 2119.58
25.28 2120.46
25.3 2116.27
25.32 2114.72
25.34 2112.6
25.36 2110.25
25.38 2109.06
25.4 2107.12
25.42 2104.82
25.44 2103.82
25.46 2103.24
25.48 2101.31
25.5 2100.83
25.52 2101.11
25.54 2096.51
25.56 2094.53
25.58 2088.45
25.6 2090.66
25.62 2090.28
25.64 2088.24
25.66 2085.97
25.68 2084.48
25.7 2082.43
25.72 2082.33
25.74 2079.29
25.76 2075.33
25.78 2076.29
25.8 2074.19
25.82 2073.47
25.84 2070.48
25.86 2069.48
25.88 2069.79
25.9 2067.28
25.92 2068.12
25.94 2066.94
25.96 2062.82
25.98 2065.69
26 2064.25
26.02 2066.67
26.04 2058.9
26.06 2059.89
26.08 2056.32
26.1 2057.41
26.12 2056.39
26.14 2051.8
26.16 2050.14
26.18 2051.42
26.2 2048.97
26.22 2046.36
26.24 2046.89
26.26 2047.08
26.28 2047.38
26.3 2046.31
26.32 2043.72
26.34 2042.51
26.36 2043.29
26.38 2041.28
26.4 2039.41
26.42 2037.06
26.44 2035.95
26.46 2036.38
26.48 2034.52
26.5 2033.15
26.52 2032.62
26.54 2028.48
26.56 2026.93
26.58 2023.36
26.6 2023.01
26.62 2018.55
26.64 2018.84
26.66 2018.88
26.68 2016.27
26.7 2013.44
26.72 2013.16
26.74 2009.42
26.76 2011.15
26.78 2012.44
26.8 2011.38
26.82 2007.49
26.84 2005.81
26.86 2004.79
26.88 2003
26.9 2000.07
26.92 1997.88
26.94 1998.59
26.96 1995.88
26.98 1996.09
27 1994.08
27.02 1992.08
27.04 1987.34
27.06 1985.38
27.08 1983.98
27.1 1980.46
27.12 1981.21
27.14 1976.25
27.16 1975.77
27.18 1974.37
27.2 1974.31
27.22 1970.04
27.24 1968.85
27.26 1965.59
27.28 1964.38
27.3 1965.07
27.32 1964.5
27.34 1962.78
27.36 1962.8
27.38 1959.8
27.4 1957.61
27.42 1956.82
27.44 1955.06
27.46 1953.92
27.48 1951.09
27.5 1949
27.52 1945.44
27.54 1943.84
27.56 1943.06
27.58 1942.64
27.6 1940.39
27.62 1937.77
27.64 1936.73
27.66 1935.13
27.68 1932.8
27.7 1932.65
27.72 1930.14
27.74 1927.11
27.76 1926.35
27.78 1925.05
27.8 1922.59
27.82 1922.42
27.84 1920.61
27.86 1921.06
27.88 1919.18
27.9 1916.27
27.92 1916.68
27.94 1916.03
27.96 1914.36
27.98 1913.06
28 1913.46
28.02 1912.64
28.04 1912.91
28.06 1907.34
28.08 1907.33
28.1 1902.34
28.12 1900.58
28.14 1891.94
28.16 1885.96
28.18 1889.85
28.2 1889.51
28.22 1890.66
28.24 1891.23
28.26 1888
28.28 1886.31
28.3 1884.98
28.32 1882.67
28.34 1882.61
28.36 1880.73
28.38 1878.93
28.4 1876.61
28.42 1878.56
28.44 1877.94
28.46 1876.79
28.48 1873.53
28.5 1875.45
28.52 1874.71
28.54 1869.9
28.56 1867.98
28.58 1868.24
28.6 1868.77
28.62 1867.71
28.64 1865.84
28.66 1863.45
28.68 1860.14
28.7 1861.06
28.72 1861.16
28.74 1858.18
28.76 1857.6
28.78 1857.66
28.8 1856.28
28.82 1855.06
28.84 1852.63
28.86 1850.42
28.88 1851.19
28.9 1849.6
28.92 1849.62
28.94 1848.08
28.96 1842.69
28.98 1843.99
29 1846
29.02 1840.93
29.04 1841.28
29.06 1838.2
29.08 1835.63
29.1 1835.11
29.12 1837.3
